IGOR
WAVES	wavelength_o
BEGIN
	651.1983
	651.20349
	651.20862
	651.21381
	651.21893
	651.22406
	651.22925
	651.23438
	651.23956
	651.24469
	651.24982
	651.255
	651.26013
	651.26532
	651.27045
	651.27557
	651.28076
	651.28589
	651.29108
	651.2962
	651.30133
	651.30652
	651.31165
	651.31677
	651.32196
	651.32709
	651.33228
	651.3374
	651.34253
	651.34772
	651.35284
	651.35797
	651.36316
	651.36829
	651.37341
	651.3786
	651.38373
	651.38885
	651.39404
	651.39917
	651.4043
	651.40948
	651.41461
	651.41974
	651.42493
	651.43005
	651.43518
	651.44037
	651.4455
	651.45062
	651.45581
	651.46094
	651.46606
	651.47119
	651.47638
	651.48151
	651.48663
	651.49182
	651.49695
	651.50208
	651.5072
	651.51239
	651.51752
	651.52264
	651.52777
	651.53296
	651.53809
	651.54321
	651.5484
	651.55353
	651.55865
	651.56378
	651.56897
	651.5741
	651.57922
	651.58435
	651.58948
	651.59467
	651.59979
	651.60492
	651.61005
	651.61523
	651.62036
	651.62549
	651.63062
	651.63574
	651.64093
	651.64606
	651.65118
	651.65631
	651.66144
	651.66663
	651.67175
	651.67688
	651.68201
	651.68713
	651.69232
	651.69745
	651.70258
	651.7077
	651.71283
	651.71796
	651.72314
	651.72827
	651.7334
	651.73853
	651.74365
	651.74878
	651.75397
	651.75909
	651.76422
	651.76935
	651.77448
	651.7796
	651.78473
	651.78986
	651.79504
	651.80017
	651.8053
	651.81042
	651.81555
	651.82068
	651.82581
	651.83093
	651.83612
	651.84125
	651.84637
	651.8515
	651.85663
	651.86176
	651.86688
	651.87201
	651.87714
	651.88226
	651.88739
	651.89252
	651.89771
	651.90283
	651.90796
	651.91309
	651.91821
	651.92334
	651.92847
	651.93359
	651.93872
	651.94385
	651.94897
	651.9541
	651.95923
	651.96436
	651.96948
	651.97461
	651.97974
	651.98486
	651.98999
	651.99512
	652.00024
	652.00537
	652.0105
	652.01562
	652.02075
	652.02588
	652.03101
	652.03613
	652.04126
	652.04639
	652.05151
	652.05664
	652.06177
	652.06689
	652.07202
	652.07715
	652.08228
	652.0874
	652.09253
	652.09766
	652.10278
	652.10791
	652.11304
	652.11816
	652.12329
	652.12842
	652.13354
	652.13867
	652.1438
	652.14886
	652.15399
	652.15912
	652.16425
	652.16937
	652.1745
	652.17963
	652.18475
	652.18988
	652.19501
	652.20013
	652.20526
	652.21033
	652.21545
	652.22058
	652.22571
	652.23083
	652.23596
	652.24109
	652.24622
	652.25128
	652.25641
	652.26154
	652.26666
	652.27179
	652.27692
	652.28204
	652.28711
	652.29224
	652.29736
	652.30249
	652.30762
	652.31274
	652.31787
	652.32294
	652.32806
	652.33319
	652.33832
	652.34344
	652.34851
	652.35364
	652.35876
	652.36389
	652.36902
	652.37408
	652.37921
	652.38434
	652.38947
	652.39459
	652.39966
	652.40479
	652.40991
	652.41504
	652.42017
	652.42523
	652.43036
	652.43549
	652.44061
	652.44568
	652.45081
	652.45593
	652.46106
	652.46613
	652.47125
	652.47638
	652.48151
	652.48657
	652.4917
	652.49683
	652.50195
	652.50702
	652.51215
	652.51727
	652.52234
	652.52747
	652.53259
	652.53772
	652.54279
	652.54791
	652.55304
	652.55811
	652.56323
	652.56836
	652.57343
	652.57855
	652.58368
	652.58875
	652.59387
	652.599
	652.60406
	652.60919
	652.61432
	652.61938
	652.62451
	652.62964
	652.6347
	652.63983
	652.64496
	652.65002
	652.65515
	652.66022
	652.66534
	652.67047
	652.67554
	652.68066
	652.68579
	652.69086
	652.69598
	652.70105
	652.70618
	652.7113
	652.71637
	652.7215
	652.72656
	652.73169
	652.73682
	652.74188
	652.74701
	652.75208
	652.7572
	652.76227
	652.7674
	652.77246
	652.77759
	652.78271
	652.78778
	652.79291
	652.79797
	652.8031
	652.80817
	652.81329
	652.81836
	652.82349
	652.82855
	652.83368
	652.83875
	652.84387
	652.849
	652.85406
	652.85919
	652.86426
	652.86938
	652.87445
	652.87958
	652.88464
	652.88971
	652.89484
	652.8999
	652.90503
	652.9101
	652.91522
	652.92029
	652.92542
	652.93048
	652.93561
	652.94067
	652.9458
	652.95087
	652.95599
	652.96106
	652.96613
	652.97125
	652.97632
	652.98145
	652.98651
	652.99164
	652.9967
	653.00177
	653.0069
	653.01196
	653.01709
	653.02216
	653.02722
	653.03235
	653.03741
	653.04254
	653.04761
	653.05267
	653.0578
	653.06287
	653.06793
	653.07306
	653.07812
	653.08325
	653.08832
	653.09338
	653.09851
	653.10358
	653.10864
	653.11377
	653.11884
	653.1239
	653.12903
	653.13409
	653.13916
	653.14429
	653.14935
	653.15442
	653.15955
	653.16461
	653.16968
	653.1748
	653.17987
	653.18494
	653.19
	653.19513
	653.2002
	653.20526
	653.21039
	653.21545
	653.22052
	653.22559
	653.23071
	653.23578
	653.24084
	653.24591
	653.25104
	653.2561
	653.26117
	653.26624
	653.27136
	653.27643
	653.28149
	653.28656
	653.29169
	653.29675
	653.30182
	653.30688
	653.31195
	653.31708
	653.32214
	653.32721
	653.33228
	653.33734
	653.34247
	653.34753
	653.3526
	653.35767
	653.36273
	653.36786
	653.37292
	653.37799
	653.38306
	653.38812
	653.39319
	653.39832
	653.40338
	653.40845
	653.41351
	653.41858
	653.42365
	653.42871
	653.43384
	653.4389
	653.44397
	653.44904
	653.4541
	653.45917
	653.46423
	653.4693
	653.47437
	653.47949
	653.48456
	653.48962
	653.49469
	653.49976
	653.50482
	653.50989
	653.51495
	653.52002
	653.52509
	653.53015
	653.53522
	653.54028
	653.54535
	653.55048
	653.55554
	653.56061
	653.56567
	653.57074
	653.57581
	653.58087
	653.58594
	653.591
	653.59607
	653.60114
	653.6062
	653.61127
	653.61633
	653.6214
	653.62646
	653.63153
	653.6366
	653.64166
	653.64673
	653.65179
	653.65686
	653.66193
	653.66699
	653.67206
	653.67712
	653.68219
	653.68726
	653.69232
	653.69733
	653.70239
	653.70746
	653.71252
	653.71759
	653.72266
	653.72772
	653.73279
	653.73785
	653.74292
	653.74799
	653.75305
	653.75812
	653.76312
	653.76819
	653.77325
	653.77832
	653.78339
	653.78845
	653.79352
	653.79858
	653.80365
	653.80865
	653.81372
	653.81879
	653.82385
	653.82892
	653.83398
	653.83905
	653.84406
	653.84912
	653.85419
	653.85925
	653.86432
	653.86938
	653.87439
	653.87946
	653.88452
	653.88959
	653.89465
	653.89966
	653.90472
	653.90979
	653.91486
	653.91992
	653.92493
	653.92999
	653.93506
	653.94012
	653.94519
	653.9502
	653.95526
	653.96033
	653.96539
	653.9704
	653.97546
	653.98053
	653.9856
	653.9906
	653.99567
	654.00073
	654.0058
	654.0108
	654.01587
	654.02094
	654.02594
	654.03101
	654.03607
	654.04108
	654.04614
	654.05121
	654.05627
	654.06128
	654.06635
	654.07141
	654.07642
	654.08148
	654.08655
	654.09155
	654.09662
	654.10168
	654.10669
	654.11176
	654.11682
	654.12183
	654.12689
	654.1319
	654.13696
	654.14203
	654.14703
	654.1521
	654.15717
	654.16217
	654.16724
	654.17224
	654.17731
	654.18237
	654.18738
	654.19244
	654.19745
	654.20251
	654.20758
	654.21259
	654.21765
	654.22266
	654.22772
	654.23273
	654.23779
	654.24286
	654.24786
	654.25293
	654.25793
	654.263
	654.26801
	654.27307
	654.27808
	654.28314
	654.28815
	654.29321
	654.29822
	654.30328
	654.30829
	654.31335
	654.31836
	654.32343
	654.32843
	654.3335
	654.3385
	654.34357
	654.34857
	654.35364
	654.35864
	654.36371
	654.36871
	654.37378
	654.37878
	654.38379
	654.38885
	654.39386
	654.39893
	654.40393
	654.409
	654.414
	654.41901
	654.42407
	654.42908
	654.43414
	654.43915
	654.44415
	654.44922
	654.45422
	654.45929
	654.46429
	654.4693
	654.47437
	654.47937
	654.48444
	654.48944
	654.49445
	654.49951
	654.50452
	654.50952
	654.51459
	654.51959
	654.5246
	654.52966
	654.53467
	654.53967
	654.54474
	654.54974
	654.55475
	654.55981
	654.56482
	654.56982
	654.57483
	654.5799
	654.5849
	654.5899
	654.59497
	654.59998
	654.60498
	654.60999
	654.61505
	654.62006
	654.62506
	654.63007
	654.63513
	654.64014
	654.64514
	654.65015
	654.65521
	654.66022
	654.66522
	654.67023
	654.67529
	654.6803
	654.6853
	654.69031
	654.69531
	654.70038
	654.70538
	654.71039
	654.71539
	654.7204
	654.72546
	654.73047
	654.73547
	654.74048
	654.74548
	654.75049
	654.75555
	654.76056
	654.76556
	654.77057
	654.77557
	654.78058
	654.78558
	654.79065
	654.79565
	654.80066
	654.80566
	654.81067
	654.81567
	654.82068
	654.82568
	654.83069
	654.83569
	654.84076
	654.84576
	654.85077
	654.85577
	654.86078
	654.86578
	654.87079
	654.87579
	654.8808
	654.8858
	654.89081
	654.89581
	654.90082
	654.90582
	654.91083
	654.91583
	654.92084
	654.92584
	654.93085
	654.93585
	654.94086
	654.94586
	654.95087
	654.95587
	654.96088
	654.96588
	654.97089
	654.97589
	654.9809
	654.9859
	654.99091
	654.99591
	655.00092
	655.00592
	655.01093
	655.01593
	655.02094
	655.02594
	655.03094
	655.03595
	655.04095
	655.04596
	655.05096
	655.05591
	655.06091
	655.06592
	655.07092
	655.07593
	655.08093
	655.08594
	655.09094
	655.09595
	655.10089
	655.1059
	655.1109
	655.11591
	655.12091
	655.12592
	655.13092
	655.13586
	655.14087
	655.14587
	655.15088
	655.15588
	655.16089
	655.16583
	655.17084
	655.17584
	655.18085
	655.18585
	655.1908
	655.1958
	655.20081
	655.20581
	655.21082
	655.21576
	655.22076
	655.22577
	655.23077
	655.23572
	655.24072
	655.24573
	655.25073
	655.25568
	655.26068
	655.26569
	655.27069
	655.27563
	655.28064
	655.28564
	655.29065
	655.29559
	655.3006
	655.3056
	655.31055
	655.31555
	655.32056
	655.3255
	655.33051
	655.33551
	655.34045
	655.34546
	655.35046
	655.35541
	655.36041
	655.36542
	655.37036
	655.37537
	655.38037
	655.38531
	655.39032
	655.39532
	655.40027
	655.40527
	655.41022
	655.41522
	655.42023
	655.42517
	655.43018
	655.43512
	655.44012
	655.44513
	655.45007
	655.45508
	655.46002
	655.46503
	655.46997
	655.47498
	655.47998
	655.48492
	655.48993
	655.49487
	655.49988
	655.50482
	655.50983
	655.51477
	655.51978
	655.52472
	655.52972
	655.53467
	655.53967
	655.54462
	655.54962
	655.55457
	655.55957
	655.56451
	655.56952
	655.57446
	655.57947
	655.58441
	655.58942
	655.59436
	655.5993
	655.60431
	655.60925
	655.61426
	655.6192
	655.62421
	655.62915
	655.63409
	655.6391
	655.64404
	655.64905
	655.65399
	655.65894
	655.66394
	655.66888
	655.67389
	655.67883
	655.68378
	655.68878
	655.69373
	655.69873
	655.70367
	655.70862
	655.71362
	655.71857
	655.72351
	655.72852
	655.73346
	655.7384
	655.74341
	655.74835
	655.7533
	655.75824
	655.76324
	655.76819
	655.77313
	655.77814
	655.78308
	655.78802
	655.79303
	655.79797
	655.80292
	655.80786
	655.81287
	655.81781
	655.82275
	655.8277
	655.8327
	655.83765
	655.84259
	655.84753
	655.85248
	655.85748
	655.86243
	655.86737
	655.87231
	655.87732
	655.88226
	655.88721
	655.89215
	655.89709
	655.90204
	655.90704
	655.91199
	655.91693
	655.92188
	655.92682
	655.93176
	655.93677
	655.94171
	655.94666
	655.9516
	655.95654
	655.96149
	655.96643
	655.97137
	655.97638
	655.98132
	655.98627
	655.99121
	655.99615
	656.0011
	656.00604
	656.01099
	656.01593
	656.02087
	656.02582
	656.03076
	656.03577
	656.04071
	656.04565
	656.0506
	656.05554
	656.06049
	656.06543
	656.07037
	656.07532
	656.08026
	656.08521
	656.09015
	656.09509
	656.10004
	656.10498
	656.10992
	656.11487
	656.11981
	656.12476
	656.1297
	656.13464
	656.13959
	656.14453
	656.14948
	656.15442
	656.1593
	656.16425
	656.16919
	656.17413
	656.17908
	656.18402
	656.18896
	656.19391
	656.19885
	656.2038
	656.20874
	656.21368
	656.21857
	656.22351
	656.22845
	656.2334
	656.23834
	656.24329
	656.24823
	656.25311
	656.25806
	656.263
	656.26794
	656.27289
	656.27783
	656.28271
	656.28766
	656.2926
	656.29755
	656.30249
	656.30743
	656.31232
	656.31726
	656.3222
	656.32715
	656.33203
	656.33698
	656.34192
	656.34686
	656.35181
	656.35669
	656.36163
	656.36658
	656.37152
	656.3764
	656.38135
	656.38629
	656.39117
	656.39612
	656.40106
	656.40601
	656.41089
	656.41583
	656.42078
	656.42566
	656.4306
	656.43555
	656.44043
	656.44537
	656.45032
	656.4552
	656.46014
	656.46509
	656.46997
	656.47491
	656.47986
	656.48474
	656.48969
	656.49463
	656.49951
	656.50446
	656.50934
	656.51428
	656.51923
	656.52411
	656.52905
	656.53394
	656.53888
	656.54382
	656.54871
	656.55365
	656.55853
	656.56348
	656.56836
	656.5733
	656.57819
	656.58313
	656.58801
	656.59296
	656.5979
	656.60278
	656.60773
	656.61261
	656.61755
	656.62244
	656.62738
	656.63226
	656.63721
	656.64209
	656.64697
	656.65192
	656.6568
	656.66174
	656.66663
	656.67157
	656.67645
	656.6814
	656.68628
	656.69122
	656.69611
	656.70099
	656.70593
	656.71082
	656.71576
	656.72064
	656.72552
	656.73047
	656.73535
	656.7403
	656.74518
	656.75006
	656.755
	656.75989
	656.76477
	656.76971
	656.7746
	656.77948
	656.78442
	656.78931
	656.79419
	656.79913
	656.80402
	656.8089
	656.81384
	656.81873
	656.82361
	656.82855
	656.83344
	656.83832
	656.84326
	656.84814
	656.85303
	656.85791
	656.86285
	656.86774
	656.87262
	656.8775
	656.88245
	656.88733
	656.89221
	656.89709
	656.90204
	656.90692
	656.9118
	656.91669
	656.92157
	656.92651
	656.9314
	656.93628
	656.94116
	656.94604
	656.95093
	656.95587
	656.96075
	656.96564
	656.97052
	656.9754
	656.98029
	656.98523
	656.99011
	656.995
	656.99988
	657.00476
	657.00964
	657.01453
	657.01941
	657.02429
	657.02924
	657.03412
	657.039
	657.04388
	657.04877
	657.05365
	657.05853
	657.06342
	657.0683
	657.07318
	657.07806
	657.08295
	657.08783
	657.09271
	657.0976
	657.10248
	657.10736
	657.11224
	657.11713
	657.12201
	657.12689
	657.13177
	657.13666
	657.14154
	657.14642
	657.15131
	657.15619
	657.16107
	657.16595
	657.17084
	657.17572
	657.1806
	657.18549
	657.19037
	657.19525
	657.20013
	657.20502
	657.20984
	657.21472
	657.2196
	657.22449
	657.22937
	657.23425
	657.23914
	657.24402
	657.2489
	657.25372
	657.25861
	657.26349
	657.26837
	657.27325
	657.27814
	657.28296
	657.28784
	657.29272
	657.29761
	657.30249
	657.30737
	657.31219
	657.31708
	657.32196
	657.32684
	657.33167
	657.33655
	657.34143
	657.34631
	657.3512
	657.35602
	657.3609
	657.36578
	657.37067
	657.37549
	657.38037
	657.38525
	657.39008
	657.39496
	657.39984
	657.40472
	657.40955
	657.41443
	657.41931
	657.42413
	657.42902
	657.4339
	657.43872
	657.4436
	657.44849
	657.45331
	657.45819
	657.46307
	657.4679
	657.47278
	657.4776
	657.48248
	657.48737
	657.49219
	657.49707
	657.50195
	657.50677
	657.51166
	657.51648
	657.52136
	657.52618
	657.53107
	657.53595
	657.54077
	657.54565
	657.55048
	657.55536
	657.56018
	657.56506
	657.56989
	657.57477
	657.57959
	657.58447
	657.58929
	657.59418
	657.599
	657.60388
	657.6087
	657.61359
	657.61841
	657.62329
	657.62811
	657.633
	657.63782
	657.6427
	657.64752
	657.6524
	657.65723
	657.66205
	657.66693
	657.67175
	657.67664
	657.68146
	657.68628
	657.69116
	657.69598
	657.70087
	657.70569
	657.71051
	657.71539
	657.72021
	657.72504
	657.72992
	657.73474
	657.73962
	657.74445
	657.74927
	657.75415
	657.75897
	657.76379
	657.76862
	657.7735
	657.77832
	657.78314
	657.78802
	657.79285
	657.79767
	657.80249
	657.80737
	657.81219
	657.81702
	657.8219
	657.82672
	657.83154
	657.83636
	657.84119
	657.84607
	657.85089
	657.85571
	657.86053
	657.86542
	657.87024
	657.87506
	657.87988
	657.8847
	657.88953
	657.89441
	657.89923
	657.90405
	657.90887
	657.9137
	657.91852
	657.9234
	657.92822
	657.93304
	657.93787
	657.94269
	657.94751
	657.95233
	657.95715
	657.96204
	657.96686
	657.97168
	657.9765
	657.98132
	657.98615
	657.99097
	657.99579
	658.00061
	658.00543
	658.01025
	658.01508
	658.0199
	658.02472
	658.02954
	658.03436
	658.03918
	658.04401
	658.04883
	658.05365
	658.05847
	658.06329
	658.06812
	658.07294
	658.07776
	658.08258
	658.0874
	658.09222
	658.09705
	658.10187
	658.10669
	658.11151
	658.11633
	658.12115
	658.12598
	658.13074
	658.13556
	658.14038
	658.1452
	658.15002
	658.15485
	658.15967
	658.16449
	658.16931
	658.17407
	658.17889
	658.18372
	658.18854
	658.19336
	658.19818
	658.20294
	658.20776
	658.21259
	658.21741
	658.22223
	658.22699
	658.23181
	658.23663
	658.24146
	658.24628
	658.25104
	658.25586
	658.26068
	658.2655
	658.27026
	658.27509
	658.27991
	658.28473
	658.28949
	658.29431
	658.29913
	658.30389
	658.30872
	658.31354
	658.31836
	658.32312
	658.32794
	658.33276
	658.33752
	658.34235
	658.34717
	658.35193
	658.35675
	658.36157
	658.36633
	658.37115
	658.37592
	658.38074
	658.38556
	658.39032
	658.39514
	658.3999
	658.40472
	658.40955
	658.41431
	658.41913
	658.42389
	658.42871
	658.43353
	658.43829
	658.44312
	658.44788
	658.4527
	658.45746
	658.46228
	658.46704
	658.47186
	658.47662
	658.48145
	658.48621
	658.49103
	658.49579
	658.50061
	658.50537
	658.51019
	658.51495
	658.51978
	658.52454
	658.52936
	658.53412
	658.53888
	658.5437
	658.54846
	658.55328
	658.55804
	658.56281
	658.56763
	658.57239
	658.57721
	658.58197
	658.58673
	658.59155
	658.59631
	658.60114
	658.6059
	658.61066
	658.61548
	658.62024
	658.625
	658.62982
	658.63458
	658.63934
	658.64417
	658.64893
	658.65369
	658.65845
	658.66327
	658.66803
	658.67279
	658.67761
	658.68237
	658.68713
	658.69189
	658.69672
	658.70148
	658.70624
	658.711
	658.71576
	658.72058
	658.72534
	658.7301
	658.73486
	658.73969
	658.74445
	658.74921
	658.75397
	658.75873
	658.76349
	658.76831
	658.77307
	658.77783
	658.78259
	658.78735
	658.79211
	658.79688
	658.8017
	658.80646
	658.81122
	658.81598
	658.82074
	658.8255
	658.83026
	658.83502
	658.83978
	658.84454
	658.8493
	658.85406
	658.85889
	658.86365
	658.86841
	658.87317
	658.87793
	658.88269
	658.88745
	658.89221
	658.89697
	658.90173
	658.90649
	658.91125
	658.91602
	658.92078
	658.92554
	658.9303
	658.93506
	658.93982
	658.94452
	658.94928
	658.95404
	658.9588
	658.96356
	658.96832
	658.97308
	658.97784
	658.9826
	658.98737
	658.99213
	658.99683
	659.00159
	659.00635
	659.01111
	659.01587
	659.02063
	659.02539
	659.03009
	659.03485
	659.03961
	659.04437
	659.04913
	659.05389
	659.05859
	659.06335
	659.06812
	659.07288
	659.07764
	659.08234
	659.0871
	659.09186
	659.09662
	659.10132
	659.10608
	659.11084
	659.1156
	659.1203
	659.12506
	659.12982
	659.13458
	659.13928
	659.14404
	659.1488
	659.1535
	659.15826
	659.16302
	659.16772
	659.17249
	659.17725
	659.18195
	659.18671
	659.19147
	659.19617
	659.20093
	659.20563
	659.21039
	659.21515
	659.21985
	659.22461
	659.22937
	659.23407
	659.23883
	659.24353
	659.24829
	659.25299
	659.25775
	659.26245
	659.26721
	659.27197
	659.27667
	659.28143
	659.28613
	659.29089
	659.29559
	659.30035
	659.30505
	659.30981
	659.31451
	659.31927
	659.32397
	659.32874
	659.33344
	659.3382
	659.3429
	659.3476
	659.35236
	659.35706
	659.36182
	659.36652
	659.37128
	659.37598
	659.38068
	659.38544
	659.39014
	659.39484
	659.3996
	659.4043
	659.40906
	659.41376
	659.41846
	659.42322
	659.42792
	659.43262
	659.43738
	659.44208
	659.44678
	659.45154
	659.45624
	659.46094
	659.4657
	659.4704
	659.4751
	659.4798
	659.48456
	659.48926
	659.49396
	659.49866
	659.50342
	659.50812
	659.51282
	659.51752
	659.52228
	659.52698
